%Time (s)	Wheel Position (deg)	Slide position (mm)	Wheel Speed (deg/s)	Slide Speed (mm/s)	Actual sample time (ms)	%2/16/20175:32 PM
0.000	7222.680	130.897	809.000	-988.176	19.000
0.020	7239.000	109.936	803.083	-1105.977	20.000
0.040	7255.180	86.813	889.333	-1203.214	22.000
0.060	7274.080	62.196	861.167	-1245.930	18.000
0.080	7289.880	37.747	885.583	-1171.796	21.000
0.100	7309.920	16.436	991.333	-929.783	19.000
0.120	7329.360	1.965	1060.750	-460.670	22.000
0.140	7352.000	-0.914	1089.333	190.158	20.000
0.160	7371.940	9.505	934.083	836.036	20.000
0.180	7389.120	31.121	740.250	1244.788	17.000
0.200	7402.140	57.596	660.417	1366.715	22.000
0.220	7415.940	85.061	652.500	1399.974	20.000
0.240	7428.000	113.013	581.250	1347.610	20.000
0.260	7439.400	138.468	548.750	1217.813	19.000
0.280	7450.320	161.424	580.667	1053.741	21.000
0.300	7462.800	180.069	645.500	799.795	21.000
0.320	7475.840	192.926	639.833	461.369	18.000
0.340	7488.640	198.531	685.500	134.748	20.000
0.360	7503.480	198.394	782.000	-184.827	21.000
0.380	7519.400	191.478	767.333	-452.864	19.000
0.400	7534.240	180.861	776.417	-618.966	21.000
0.420	7550.560	166.953	809.667	-755.048	20.000
0.440	7566.420	150.745	798.083	-883.195	20.000
0.460	7582.520	131.765	794.500	-981.448	20.000
0.480	7598.380	111.323	822.667	-1119.306	20.000
0.500	7615.560	87.117	879.667	-1244.407	20.000
0.520	7633.300	62.196	877.333	-1260.084	20.000
0.540	7650.760	37.412	887.500	-1180.809	19.000
0.560	7669.420	16.101	1029.500	-925.974	22.000
0.580	7691.520	1.752	1094.083	-450.198	20.000
0.600	7712.300	-0.853	997.333	205.582	19.000
0.620	7731.220	9.825	882.500	838.258	19.000
0.640	7747.660	31.349	779.667	1252.468	20.000
0.660	7762.600	58.190	718.583	1374.395	21.000
0.680	7776.220	85.472	606.750	1379.663	19.000
0.700	7787.240	112.952	567.167	1333.520	20.000
0.720	7799.160	138.331	568.583	1209.815	20.000
0.740	7810.000	161.013	558.333	1044.855	20.000
0.760	7821.840	179.597	614.333	792.686	21.000
0.780	7834.680	192.316	688.417	474.190	20.000
0.800	7849.160	198.516	716.250	156.773	20.000
0.820	7863.340	198.562	752.000	-173.973	21.000
0.840	7879.220	191.935	795.250	-442.391	19.000
0.860	7894.680	181.425	737.000	-614.650	19.000
0.880	7909.020	167.593	748.750	-755.619	20.000
0.900	7924.860	151.340	800.000	-874.880	20.000
0.920	7940.960	132.603	837.750	-997.379	21.000
0.940	7958.200	111.475	839.667	-1119.560	20.000
0.960	7974.680	88.047	869.333	-1203.595	21.000
0.980	7993.100	63.582	928.417	-1263.067	20.000
1.000	8011.520	38.326	917.333	-1199.914	19.000
1.020	8030.100	16.848	977.750	-936.955	20.000
1.040	8050.520	2.148	1015.917	-473.047	20.000
1.060	8070.440	-0.975	1006.833	180.320	20.000
1.080	8090.420	9.277	940.083	824.231	20.000
1.100	8107.660	30.603	802.000	1231.840	20.000
1.120	8122.660	56.956	700.917	1377.886	20.000
1.140	8135.880	84.817	629.667	1398.006	20.000
1.160	8147.960	112.297	568.167	1334.916	20.000
1.180	8158.940	137.813	567.833	1214.004	21.000
1.200	8170.780	160.540	580.333	1052.344	18.000
1.220	8182.160	179.399	580.417	809.950	20.000
1.240	8194.440	192.423	674.333	481.362	21.000
1.260	8208.920	198.486	713.583	123.577	20.000
1.280	8223.020	197.709	773.750	-165.341	21.000
1.300	8239.540	192.027	770.833	-447.532	19.000
1.320	8253.700	180.435	734.833	-618.332	20.000
1.340	8269.360	167.700	793.083	-717.727	20.000
1.360	8285.220	151.492	802.000	-879.260	20.000
1.380	8301.360	132.740	792.667	-993.444	20.000
1.400	8317.220	111.780	843.750	-1110.611	21.000
1.420	8335.120	88.427	898.750	-1216.162	19.000
1.440	8352.800	63.537	870.750	-1263.766	20.000
1.460	8370.300	38.677	920.583	-1189.695	20.000
1.480	8389.680	17.076	975.083	-944.762	19.000
1.500	8409.220	2.270	1011.667	-479.585	20.000
1.520	8430.140	-0.975	1073.000	179.241	22.000
1.540	8451.180	9.368	949.250	830.197	19.000
1.560	8467.840	30.847	787.000	1245.867	19.000
1.580	8483.000	57.596	695.583	1397.879	20.000
1.600	8495.820	85.838	617.500	1419.776	20.000
1.620	8508.080	113.806	611.250	1359.289	22.000
1.640	8520.280	139.778	596.833	1237.108	20.000
1.660	8531.980	162.886	581.083	1059.199	19.000
1.680	8543.780	181.577	604.583	790.718	19.000
1.700	8556.620	193.992	721.500	430.585	22.000
1.720	8572.300	198.851	769.500	90.700	19.000
1.740	8586.980	197.739	731.417	-239.983	20.000
1.760	8601.980	189.788	791.833	-473.682	20.000
1.780	8618.520	179.079	823.417	-668.283	21.000
1.800	8634.580	163.252	784.667	-842.256	19.000
1.820	8650.160	145.840	800.750	-926.926	20.000
1.840	8666.780	126.022	849.333	-1053.424	20.000
1.860	8683.940	103.706	851.667	-1182.079	20.000
1.880	8700.980	78.998	881.750	-1272.905	20.000
1.900	8719.360	53.346	939.000	-1284.203	20.000
1.920	8738.520	28.638	992.000	-1143.552	20.000
1.940	8758.900	9.033	1014.833	-778.786	19.000
1.960	8779.220	-1.051	1077.750	-172.767	21.000
1.980	8801.400	2.742	1032.083	544.008	19.000
2.000	8819.860	19.772	864.500	1099.376	21.000
2.020	8836.320	45.059	782.833	1379.663	21.000
2.040	8851.100	73.636	669.917	1462.746	19.000
2.060	8863.440	102.533	618.750	1372.491	21.000
2.080	8876.040	128.505	595.000	1311.686	19.000
2.100	8887.340	154.615	579.250	1199.406	20.000
2.120	8899.500	175.484	615.583	906.933	20.000
2.140	8912.100	190.504	670.167	564.382	20.000
2.160	8926.380	197.952	740.917	207.994	20.000
2.180	8941.540	198.912	775.833	-136.589	20.000
2.200	8957.200	192.834	771.667	-429.252	20.000
2.220	8972.460	182.339	781.000	-616.364	19.000
2.240	8988.540	168.385	808.250	-784.815	21.000
2.260	9004.820	151.248	844.083	-899.380	20.000
2.280	9022.100	132.466	836.750	-1005.122	19.000
2.300	9038.360	110.835	845.083	-1162.085	20.000
2.320	9056.040	86.310	879.417	-1260.401	20.000
2.340	9073.520	60.901	900.750	-1291.058	21.000
2.360	9092.320	35.493	973.833	-1201.310	19.000
2.380	9112.420	14.151	1033.667	-907.885	21.000
2.400	9133.520	0.625	1072.750	-385.839	20.000
2.420	9155.040	-0.152	1074.083	337.156	21.000
2.440	9175.820	13.664	962.000	986.208	20.000
2.460	9193.040	37.549	757.167	1333.583	18.000
2.480	9206.640	65.547	659.583	1454.812	21.000
2.500	9219.880	94.856	640.083	1450.306	20.000
2.520	9232.240	122.961	603.917	1358.527	20.000
2.540	9244.220	148.780	599.000	1210.767	20.000
2.560	9256.420	170.899	627.250	991.286	20.000
2.580	9269.560	187.777	705.083	661.682	21.000
2.600	9284.420	197.023	741.167	275.653	19.000
2.620	9299.000	198.973	735.583	-76.419	19.000
2.640	9314.060	194.312	780.000	-375.620	21.000
2.660	9330.140	184.426	813.417	-597.894	20.000
2.680	9346.340	170.792	793.583	-758.285	19.000
2.700	9362.020	154.310	800.417	-887.067	20.000
2.720	9378.640	135.375	867.917	-1006.836	21.000
2.740	9396.440	113.988	868.417	-1141.584	20.000
2.760	9413.400	89.859	878.583	-1257.799	20.000
2.780	9431.680	64.161	900.833	-1301.086	19.000
2.800	9449.700	38.631	976.000	-1223.779	21.000
2.820	9470.640	16.421	1035.000	-963.041	19.000
2.840	9490.840	1.645	1045.917	-454.704	21.000
2.860	9512.400	-0.594	1062.167	255.977	20.000
2.880	9532.760	11.638	977.583	929.021	21.000
2.900	9551.080	34.929	816.583	1321.587	19.000
2.920	9565.660	62.866	706.250	1450.433	21.000
2.940	9579.620	92.053	647.167	1456.018	19.000
2.960	9591.580	120.523	574.000	1378.901	20.000
2.980	9603.120	146.739	604.500	1235.013	20.000
3.000	9615.900	169.421	655.333	1018.642	20.000
3.020	9629.100	186.832	648.500	694.687	19.000
3.040	9642.140	196.795	704.250	300.597	20.000
3.060	9657.400	199.004	786.417	-63.026	20.000
3.080	9673.280	194.647	798.167	-366.607	21.000
3.100	9689.480	184.776	863.500	-603.797	21.000
3.120	9707.220	170.960	801.667	-764.505	18.000
3.140	9721.680	154.417	763.000	-893.477	20.000
3.160	9738.480	135.254	882.333	-1022.450	20.000
3.180	9756.440	113.562	875.583	-1146.599	21.000
3.200	9773.540	89.509	883.417	-1257.990	20.000
3.220	9792.020	63.643	935.750	-1314.098	20.000
3.240	9811.100	37.823	1009.500	-1237.108	21.000
3.260	9832.340	15.461	1075.333	-963.295	20.000
3.280	9853.820	0.960	1098.250	-417.130	20.000
3.300	9875.700	-0.076	1020.083	324.462	18.000
3.320	9894.400	13.634	908.333	1027.401	21.000
3.340	9912.160	38.981	831.000	1370.016	20.000
3.360	9927.500	66.842	716.167	1459.890	20.000
3.380	9941.060	96.790	647.333	1492.577	19.000
3.400	9953.720	125.733	634.667	1387.280	22.000
3.420	9966.560	151.888	633.000	1242.503	20.000
3.440	9979.180	174.676	656.167	973.641	20.000
3.460	9992.820	190.138	671.083	583.613	19.000
3.480	10006.320	198.059	745.167	217.958	20.000
3.500	10022.620	198.882	821.167	-155.821	20.000
3.520	10038.740	192.316	816.417	-445.374	21.000
3.540	10055.100	181.592	778.583	-649.813	18.000
3.560	10070.220	166.633	809.167	-814.647	21.000
3.580	10087.600	149.375	865.333	-907.377	20.000
3.600	10104.540	130.090	858.333	-1059.644	20.000
3.620	10121.980	107.012	864.917	-1212.354	20.000
3.640	10139.260	82.045	887.000	-1286.552	20.000
3.660	10157.780	55.981	977.333	-1311.051	21.000
3.680	10178.060	30.618	1004.500	-1179.159	19.000
3.700	10197.820	10.252	1000.750	-822.961	20.000
3.720	10218.500	-0.792	1099.000	-220.688	21.000
3.740	10241.120	2.209	1077.917	522.999	20.000
3.760	10260.700	19.239	883.583	1112.705	19.000
3.780	10276.720	44.983	756.417	1412.731	20.000
3.800	10291.240	74.352	674.083	1498.861	19.000
3.820	10303.900	104.056	621.417	1457.161	20.000
3.840	10316.360	132.100	613.167	1340.755	20.000
3.860	10328.540	157.250	615.333	1165.449	21.000
3.880	10341.200	178.119	657.250	897.159	20.000
3.900	10354.940	192.499	716.500	517.286	20.000
3.920	10369.820	198.775	768.000	141.794	20.000
3.940	10385.540	198.349	799.250	-205.962	20.000
3.960	10401.680	190.884	815.750	-505.163	20.000
3.980	10418.000	178.805	794.833	-689.102	19.000
4.000	10433.720	163.663	829.583	-822.136	22.000
4.020	10451.100	145.962	843.250	-955.425	19.000
4.040	10467.380	125.459	837.583	-1089.348	20.000
4.060	10484.900	102.472	902.583	-1213.497	20.000
4.080	10503.100	77.185	872.333	-1302.165	19.000
4.100	10520.240	51.015	938.833	-1298.674	20.000
4.120	10540.740	26.323	1014.417	-1131.239	20.000
4.140	10560.700	7.251	1070.083	-730.865	20.000
4.160	10583.320	-1.432	1102.083	-84.606	21.000
4.180	10604.060	4.387	996.250	656.795	20.000
4.200	10623.120	23.718	902.333	1206.515	20.000
4.220	10640.000	50.817	777.500	1451.195	20.000
4.240	10654.280	80.445	658.000	1496.068	19.000
4.260	10666.740	109.921	616.083	1438.500	21.000
4.280	10679.120	137.493	595.417	1312.892	20.000
4.300	10690.860	161.957	627.917	1118.989	20.000
4.320	10704.340	181.638	673.917	829.308	20.000
4.340	10717.800	194.525	710.667	432.807	20.000
4.360	10732.900	199.004	779.917	55.093	20.000
4.380	10748.780	197.008	808.083	-278.510	20.000
4.400	10765.000	188.280	794.833	-550.989	19.000
4.420	10780.660	175.575	801.167	-717.854	20.000
4.440	10797.180	159.779	834.167	-859.521	21.000
4.460	10813.940	141.286	841.917	-989.508	20.000
4.480	10831.040	120.249	890.583	-1113.213	21.000
4.500	10849.480	96.821	927.917	-1233.680	20.000
4.520	10867.760	71.229	875.917	-1309.274	18.000
4.540	10885.000	45.211	922.000	-1268.907	21.000
4.560	10904.980	21.600	1032.500	-1060.088	20.000
4.580	10925.960	4.326	1073.000	-610.461	20.000
4.600	10947.640	-1.432	1087.917	73.626	19.000
4.620	10968.760	7.464	967.833	797.065	20.000
4.640	10986.280	29.034	846.917	1277.539	21.000
4.660	11002.800	56.758	763.167	1459.890	20.000
4.680	11016.700	86.310	645.250	1479.756	20.000
4.700	11028.960	115.298	588.917	1408.859	19.000
4.720	11040.700	142.215	611.417	1276.777	21.000
4.740	11053.460	165.872	628.750	1073.163	19.000
4.760	11065.960	184.471	658.833	761.141	20.000
4.780	11080.140	195.789	761.167	355.817	21.000
4.800	11096.020	198.882	780.750	-8.632	19.000
4.820	11111.260	195.759	784.750	-324.335	21.000
4.840	11127.540	186.299	821.000	-583.804	20.000
4.860	11143.960	172.970	822.583	-745.210	20.000
4.880	11160.580	156.686	856.917	-883.576	21.000
4.900	11178.160	137.706	877.083	-1011.660	20.000
4.920	11195.480	116.243	855.667	-1139.236	19.000
4.940	11212.660	92.220	894.000	-1261.481	21.000
4.960	11231.220	66.218	918.917	-1319.620	19.000
4.980	11249.520	40.261	959.750	-1255.641	20.000
5.000	11269.820	17.274	1045.917	-995.983	20.000
5.020	11291.120	2.026	1091.917	-477.617	20.000
5.040	11313.000	-0.625	1055.167	246.393	19.000
5.060	11332.900	11.699	947.167	946.348	21.000
5.080	11350.820	35.523	838.250	1351.926	20.000
5.100	11366.360	64.085	706.583	1485.215	19.000
5.120	11379.500	94.003	653.750	1491.181	21.000
5.140	11392.760	123.082	639.917	1403.020	20.000
5.160	11405.120	149.618	616.500	1243.264	20.000
5.180	11417.740	172.285	658.250	1008.804	20.000
5.200	11431.380	189.239	673.250	649.559	19.000
5.220	11444.860	197.937	725.333	239.602	20.000
5.240	11460.500	198.943	801.833	-154.170	21.000
5.260	11476.620	192.408	811.500	-438.075	20.000
5.280	11493.020	182.004	847.250	-626.139	20.000
5.300	11510.260	167.563	828.083	-793.574	20.000
5.320	11526.280	150.456	838.667	-927.942	21.000
5.340	11543.960	130.486	880.500	-1060.913	20.000
5.360	11561.340	108.093	886.250	-1189.886	20.000
5.380	11579.420	83.279	894.500	-1245.486	19.000
5.400	11597.260	58.373	931.917	-1316.510	20.000
5.420	11616.640	31.639	945.500	-1231.522	19.000
5.440	11635.440	10.937	1037.000	-840.352	21.000
5.460	11657.940	-0.640	1099.500	-248.488	19.000
5.480	11678.780	1.828	1050.000	497.293	21.000
5.500	11699.480	18.401	928.250	1094.933	20.000
5.520	11715.760	43.917	777.750	1407.146	21.000
5.540	11731.000	73.286	714.167	1504.319	20.000
5.560	11744.280	103.188	623.750	1471.188	19.000
5.580	11756.240	131.537	580.667	1352.625	19.000
5.600	11767.980	156.839	624.417	1172.304	21.000
5.620	11781.240	177.860	657.333	906.298	20.000
5.640	11794.420	192.423	720.667	521.856	21.000
5.660	11810.000	198.699	772.833	140.778	19.000
5.680	11825.100	198.303	776.917	-195.426	20.000
5.700	11841.200	191.113	812.000	-508.845	20.000
5.720	11857.560	178.637	843.250	-700.780	21.000
5.740	11874.800	163.495	857.333	-827.658	20.000
5.760	11891.520	145.551	797.667	-962.089	19.000
5.780	11907.120	125.063	821.583	-1087.634	20.000
5.800	11924.680	102.076	900.417	-1215.718	20.000
5.820	11942.900	76.728	922.917	-1300.705	20.000
5.840	11961.660	50.650	961.417	-1300.388	20.000
5.860	11981.460	25.820	1019.917	-1132.635	20.000
5.880	12002.420	6.901	1077.500	-717.410	20.000
5.900	12024.200	-1.432	1075.000	-64.105	20.000
5.920	12044.980	4.814	998.167	677.550	20.000
5.940	12063.940	24.510	900.500	1220.732	21.000
5.960	12080.780	51.823	759.583	1461.477	19.000
5.980	12094.480	81.664	642.750	1505.970	20.000
6.000	12107.000	111.292	619.667	1441.357	19.000
6.020	12119.440	138.833	614.917	1310.988	20.000
6.040	12131.740	163.252	626.417	1113.276	21.000
6.060	12144.820	182.704	703.167	810.013	21.000
6.080	12159.700	195.073	740.417	404.880	19.000
6.100	12174.360	199.004	764.333	27.356	20.000
6.120	12190.360	196.475	812.583	-301.803	20.000
6.140	12206.660	187.350	821.500	-569.840	21.000
6.160	12223.080	174.280	804.167	-733.721	19.000
6.180	12238.960	158.210	816.083	-872.849	20.000
6.200	12255.760	139.443	827.000	-1002.012	19.000
6.220	12272.240	118.132	879.250	-1135.999	21.000
6.240	12290.840	94.140	911.583	-1252.150	20.000
6.260	12308.580	68.427	916.500	-1313.907	20.000
6.280	12327.700	42.317	958.083	-1269.732	19.000
6.300	12347.160	18.889	1048.500	-1035.779	21.000
6.320	12369.540	2.574	1132.583	-531.060	20.000
6.340	12391.660	-0.929	1065.667	222.084	19.000
6.360	12411.880	11.227	963.500	935.812	20.000
6.380	12430.120	34.807	852.250	1358.400	20.000
6.400	12445.980	63.872	739.417	1512.190	21.000
6.420	12459.920	94.216	664.667	1508.128	20.000
6.440	12472.820	123.570	629.583	1419.142	20.000
6.460	12485.320	150.441	625.667	1252.214	20.000
6.480	12498.080	173.077	659.667	999.727	20.000
6.500	12511.840	189.742	717.750	630.328	20.000
6.520	12526.660	198.044	749.417	223.988	19.000
6.540	12541.700	198.897	758.000	-148.521	20.000
6.560	12557.100	192.560	794.417	-449.944	20.000
6.580	12573.440	181.516	823.667	-647.465	21.000
6.600	12589.920	166.984	828.000	-799.477	20.000
6.620	12606.580	149.679	838.333	-932.829	20.000
6.640	12623.500	129.739	856.000	-1061.738	20.000
6.660	12640.880	107.438	887.417	-1141.711	20.000
6.680	12658.880	83.873	887.167	-1279.951	19.000
6.700	12676.640	56.758	945.167	-1344.500	21.000
6.720	12696.660	31.487	992.500	-1172.177	19.000
6.740	12716.280	11.029	1026.083	-842.256	21.000
6.760	12737.800	-0.640	1093.000	-251.090	20.000
6.780	12759.500	1.889	1079.417	504.148	20.000
6.800	12780.100	18.630	902.000	1101.534	19.000
6.820	12795.620	44.191	737.000	1404.544	21.000
6.840	12810.280	73.408	715.083	1492.133	20.000
6.860	12824.060	103.021	638.167	1457.605	20.000
6.880	12836.000	131.156	594.417	1343.992	20.000
6.900	12848.220	156.351	619.167	1173.002	20.000
6.920	12860.900	177.495	660.750	914.042	20.000
6.940	12874.660	192.210	699.250	530.361	20.000
6.960	12888.940	198.653	751.917	149.727	20.000
6.980	12904.720	198.333	802.000	-213.389	20.000
7.000	12920.920	190.549	839.417	-511.701	20.000
7.020	12938.020	178.591	824.417	-681.295	20.000
7.040	12953.880	163.526	809.500	-825.944	20.000
7.060	12970.540	145.658	817.917	-956.377	19.000
7.080	12986.800	125.306	862.250	-1083.255	21.000
7.100	13005.080	102.366	920.833	-1210.133	21.000
7.120	13023.260	77.170	896.000	-1299.309	19.000
7.140	13041.220	51.000	934.583	-1301.721	20.000
7.160	13060.880	26.216	1020.250	-1134.793	20.000
7.180	13081.740	7.144	1039.583	-724.391	19.000
7.200	13102.560	-1.325	1103.583	-77.879	21.000
7.220	13125.160	4.524	1033.417	659.651	20.000
7.240	13143.380	23.946	870.750	1207.467	21.000
7.260	13160.280	51.000	778.750	1451.131	20.000
7.280	13174.540	80.689	677.750	1496.322	20.000
7.300	13187.540	110.195	597.083	1459.763	18.000
7.320	13198.800	138.392	578.000	1314.352	20.000
7.340	13211.060	162.277	628.833	1098.297	21.000
7.360	13223.980	181.897	673.583	826.135	20.000
7.380	13238.060	194.647	727.500	428.364	20.000
7.400	13253.140	199.080	803.250	50.586	21.000
7.420	13269.740	196.932	787.333	-286.253	18.000
7.440	13284.640	188.036	776.250	-565.968	21.000
7.460	13301.100	174.996	826.667	-721.154	20.000
7.480	13317.720	159.428	879.917	-842.574	22.000
7.500	13335.980	141.149	870.667	-1001.568	19.000
7.520	13352.500	119.472	853.333	-1140.632	20.000
7.540	13370.380	95.724	890.583	-1249.802	19.000
7.560	13388.120	69.782	918.583	-1318.096	20.000
7.580	13407.200	43.582	955.583	-1320.000	19.000
7.600	13426.600	18.676	1048.417	-1034.700	22.000
7.620	13448.880	3.671	1092.000	-519.064	19.000
7.640	13469.940	-1.173	1087.750	132.781	21.000
7.660	13491.840	9.368	994.833	880.339	19.000
7.680	13509.220	32.385	796.750	1332.441	19.000
7.700	13524.360	60.856	741.417	1489.340	21.000
7.720	13538.880	90.941	667.333	1504.637	19.000
7.740	13551.180	120.371	608.250	1424.473	21.000
7.760	13563.620	147.394	624.500	1269.859	20.000
7.780	13576.300	170.609	652.250	1034.700	20.000
7.800	13589.960	188.082	731.917	682.818	21.000
7.820	13605.360	197.541	764.583	268.164	19.000
7.840	13620.440	198.973	782.417	-116.405	21.000
7.860	13636.640	193.383	800.917	-419.351	19.000
7.880	13652.420	182.750	802.917	-633.311	20.000
7.900	13668.980	168.401	859.167	-795.669	21.000
7.920	13686.460	151.111	843.250	-930.925	19.000
7.940	13702.760	131.232	834.583	-1058.120	20.000
7.960	13720.280	108.824	924.333	-1183.792	22.000
7.980	13739.240	84.056	901.250	-1287.694	18.000
8.000	13756.460	57.809	903.583	-1322.857	20.000
8.020	13775.900	32.157	1011.167	-1203.595	20.000
8.040	13796.700	11.120	1073.417	-858.632	20.000
8.060	13818.480	-0.594	1074.583	-253.375	20.000
8.080	13839.480	1.874	1059.250	511.447	21.000
8.100	13860.240	18.996	932.583	1126.415	19.000
8.120	13876.560	45.090	761.250	1430.186	20.000
8.140	13891.300	74.794	718.500	1520.505	21.000
8.160	13905.260	105.016	647.583	1481.978	19.000
8.180	13917.400	133.487	607.167	1360.939	20.000
8.200	13929.940	158.956	640.167	1170.590	20.000
8.220	13943.020	179.688	664.083	885.099	19.000
8.240	13956.580	193.687	699.000	480.219	20.000
8.260	13971.140	198.912	766.667	88.796	20.000
8.280	13987.140	197.495	814.250	-262.515	20.000
8.300	14003.500	188.843	826.250	-551.116	20.000
8.320	14020.040	176.139	807.417	-718.362	19.000
8.340	14036.040	160.327	843.333	-861.171	21.000
8.360	14053.680	141.773	855.833	-994.840	20.000
8.380	14070.220	120.599	853.167	-1118.291	20.000
